# Temperature (C)	Pressure (bar)	Quality (l+v)	Internal Energy (l+v, kJ/mol)	Enthalpy (l+v, kJ/mol)	Entropy (l+v, J/mol*K)	Density (l, kg/m3)	Volume (l, m3/kg)	Internal Energy (l, kJ/mol)	Enthalpy (l, kJ/mol)	Entropy (l, J/mol*K)	Cv (l, J/mol*K)	Cp (l, J/mol*K)	Sound Spd. (l, m/s)	Joule-Thomson (l, K/bar)	Viscosity (l, uPa*s)	Therm. Cond. (l, W/m*K)	Density (v, kg/m3)	Volume (v, m3/kg)	Internal Energy (v, kJ/mol)	Enthalpy (v, kJ/mol)	Entropy (v, J/mol*K)	Cv (v, J/mol*K)	Cp (v, J/mol*K)	Sound Spd. (v, m/s)	Joule-Thomson (v, K/bar)	Viscosity (v, uPa*s)	Therm. Cond. (v, W/m*K)
-100.00	1.5759	0.37205	4.4223	4.9395	28.563	2887.3	0.00034634	0.35637	0.36354	2.1352	21.289	44.876	620.14	-0.059488	438.65	0.067736	15.012	0.066612	11.285	12.663	73.170	13.735	23.759	131.68	5.4642	14.251	0.0033751
-99.500	1.6171	0.38103	4.5357	5.0665	29.217	2883.9	0.00034675	0.37873	0.38609	2.2642	21.258	44.901	618.71	-0.059276	435.68	0.067548	15.373	0.065049	11.289	12.670	73.002	13.755	23.812	131.81	5.4267	14.289	0.0033865
-99.000	1.6591	0.39018	4.6506	5.1951	29.878	2880.5	0.00034717	0.40110	0.40866	2.3929	21.228	44.927	617.28	-0.059061	432.73	0.067359	15.740	0.063531	11.292	12.676	72.835	13.775	23.865	131.93	5.3896	14.327	0.0033980
-98.500	1.7020	0.39949	4.7669	5.3255	30.545	2877.0	0.00034758	0.42348	0.43124	2.5212	21.197	44.953	615.85	-0.058844	429.81	0.067170	16.114	0.062058	11.296	12.683	72.669	13.795	23.919	132.06	5.3529	14.366	0.0034095
-98.000	1.7457	0.40897	4.8846	5.4576	31.218	2873.6	0.00034800	0.44587	0.45384	2.6493	21.167	44.980	614.42	-0.058623	426.91	0.066981	16.494	0.060627	11.299	12.689	72.505	13.815	23.974	132.19	5.3166	14.404	0.0034210
-97.500	1.7903	0.41861	5.0038	5.5915	31.898	2870.1	0.00034841	0.46827	0.47646	2.7771	21.137	45.008	612.98	-0.058399	424.04	0.066791	16.881	0.059237	11.303	12.695	72.341	13.835	24.029	132.31	5.2806	14.442	0.0034326
-97.000	1.8357	0.42843	5.1245	5.7271	32.584	2866.7	0.00034883	0.49068	0.49909	2.9045	21.108	45.036	611.54	-0.058173	421.20	0.066602	17.275	0.057887	11.306	12.702	72.178	13.856	24.085	132.44	5.2451	14.481	0.0034442
-96.500	1.8820	0.43843	5.2467	5.8645	33.276	2863.2	0.00034926	0.51310	0.52173	3.0317	21.078	45.065	610.10	-0.057943	418.38	0.066412	17.676	0.056575	11.310	12.708	72.016	13.877	24.142	132.56	5.2099	14.519	0.0034558
-96.000	1.9292	0.44860	5.3704	6.0037	33.976	2859.8	0.00034968	0.53554	0.54440	3.1586	21.049	45.094	608.66	-0.057711	415.58	0.066222	18.083	0.055300	11.313	12.714	71.855	13.898	24.199	132.68	5.1751	14.558	0.0034675
-95.500	1.9772	0.45894	5.4957	6.1446	34.682	2856.3	0.00035010	0.55799	0.56708	3.2852	21.019	45.125	607.22	-0.057475	412.80	0.066032	18.498	0.054060	11.317	12.720	71.695	13.919	24.257	132.81	5.1407	14.597	0.0034792
-95.000	2.0262	0.46947	5.6224	6.2874	35.394	2852.8	0.00035053	0.58045	0.58977	3.4115	20.990	45.155	605.78	-0.057236	410.05	0.065842	18.920	0.052855	11.320	12.726	71.536	13.940	24.316	132.93	5.1066	14.636	0.0034910
-94.500	2.0760	0.48018	5.7507	6.4321	36.113	2849.3	0.00035096	0.60292	0.61249	3.5375	20.962	45.187	604.34	-0.056994	407.33	0.065652	19.348	0.051684	11.323	12.732	71.378	13.961	24.375	133.05	5.0728	14.675	0.0035028
-94.000	2.1268	0.49107	5.8805	6.5786	36.839	2845.8	0.00035139	0.62541	0.63522	3.6633	20.933	45.218	602.89	-0.056750	404.62	0.065461	19.784	0.050545	11.327	12.738	71.221	13.983	24.435	133.16	5.0394	14.714	0.0035146
-93.500	2.1786	0.50215	6.0119	6.7269	37.571	2842.3	0.00035182	0.64790	0.65797	3.7888	20.904	45.251	601.44	-0.056502	401.94	0.065271	20.228	0.049437	11.330	12.744	71.064	14.005	24.496	133.28	5.0064	14.753	0.0035265
-93.000	2.2312	0.51342	6.1448	6.8772	38.310	2838.8	0.00035226	0.67042	0.68074	3.9140	20.876	45.284	599.99	-0.056250	399.28	0.065080	20.678	0.048360	11.333	12.750	70.909	14.026	24.558	133.40	4.9737	14.792	0.0035384
-92.500	2.2848	0.52487	6.2794	7.0293	39.056	2835.3	0.00035269	0.69294	0.70352	4.0389	20.848	45.318	598.54	-0.055996	396.64	0.064890	21.137	0.047311	11.336	12.756	70.754	14.048	24.620	133.51	4.9413	14.832	0.0035504
-92.000	2.3394	0.53652	6.4155	7.1834	39.808	2831.8	0.00035313	0.71548	0.72633	4.1636	20.820	45.353	597.09	-0.055738	394.02	0.064699	21.602	0.046291	11.339	12.761	70.600	14.071	24.683	133.63	4.9092	14.871	0.0035624
-91.500	2.3950	0.54837	6.5532	7.3393	40.567	2828.3	0.00035357	0.73804	0.74915	4.2880	20.792	45.388	595.64	-0.055477	391.43	0.064508	22.076	0.045298	11.342	12.767	70.447	14.093	24.747	133.74	4.8775	14.911	0.0035744
-91.000	2.4516	0.56041	6.6925	7.4972	41.333	2824.8	0.00035401	0.76060	0.77200	4.4122	20.764	45.423	594.18	-0.055213	388.85	0.064317	22.557	0.044332	11.346	12.772	70.295	14.116	24.811	133.85	4.8461	14.951	0.0035865
-90.500	2.5091	0.57266	6.8335	7.6571	42.106	2821.2	0.00035446	0.78319	0.79486	4.5360	20.737	45.460	592.72	-0.054946	386.30	0.064127	23.046	0.043392	11.349	12.778	70.143	14.138	24.877	133.96	4.8150	14.991	0.0035986
-90.000	2.5677	0.58510	6.9761	7.8189	42.886	2817.7	0.00035490	0.80578	0.81775	4.6597	20.709	45.497	591.26	-0.054675	383.77	0.063936	23.543	0.042476	11.352	12.783	69.992	14.161	24.943	134.07	4.7842	15.031	0.0036108
-89.500	2.6272	0.59775	7.1203	7.9827	43.672	2814.1	0.00035535	0.82840	0.84065	4.7831	20.682	45.535	589.80	-0.054400	381.25	0.063745	24.047	0.041584	11.354	12.789	69.843	14.184	25.010	134.18	4.7537	15.071	0.0036231
-89.000	2.6879	0.61060	7.2662	8.1485	44.466	2810.6	0.00035580	0.85102	0.86358	4.9062	20.655	45.573	588.34	-0.054122	378.76	0.063554	24.560	0.040716	11.357	12.794	69.693	14.208	25.077	134.29	4.7235	15.111	0.0036353
-88.500	2.7495	0.62367	7.4138	8.3162	45.266	2807.0	0.00035625	0.87367	0.88653	5.0291	20.628	45.612	586.88	-0.053841	376.29	0.063363	25.081	0.039870	11.360	12.799	69.545	14.231	25.146	134.39	4.6937	15.152	0.0036477
-88.000	2.8122	0.63695	7.5630	8.4861	46.073	2803.4	0.00035671	0.89633	0.90950	5.1517	20.601	45.652	585.41	-0.053556	373.84	0.063172	25.611	0.039046	11.363	12.805	69.398	14.255	25.215	134.50	4.6641	15.192	0.0036600
-87.500	2.8760	0.65044	7.7139	8.6579	46.887	2799.8	0.00035716	0.91900	0.93249	5.2741	20.574	45.692	583.94	-0.053268	371.40	0.062981	26.148	0.038244	11.366	12.810	69.251	14.278	25.285	134.60	4.6347	15.233	0.0036724
-87.000	2.9408	0.66414	7.8665	8.8318	47.708	2796.2	0.00035762	0.94170	0.95550	5.3963	20.548	45.734	582.47	-0.052976	368.99	0.062790	26.694	0.037462	11.368	12.815	69.105	14.302	25.356	134.70	4.6057	15.274	0.0036849
-86.500	3.0068	0.67807	8.0208	9.0078	48.536	2792.7	0.00035808	0.96440	0.97854	5.5182	20.522	45.776	581.00	-0.052681	366.59	0.062599	27.248	0.036699	11.371	12.820	68.959	14.326	25.427	134.81	4.5770	15.315	0.0036974
-86.000	3.0738	0.69222	8.1769	9.1858	49.371	2789.0	0.00035855	0.98713	1.0016	5.6399	20.495	45.818	579.53	-0.052381	364.21	0.062408	27.811	0.035956	11.374	12.825	68.815	14.350	25.500	134.91	4.5485	15.356	0.0037100
-85.500	3.1419	0.70659	8.3346	9.3659	50.212	2785.4	0.00035901	1.0099	1.0247	5.7613	20.469	45.861	578.05	-0.052079	361.85	0.062217	28.383	0.035232	11.376	12.830	68.671	14.375	25.573	135.01	4.5203	15.397	0.0037226
-85.000	3.2112	0.72118	8.4941	9.5482	51.061	2781.8	0.00035948	1.0326	1.0478	5.8826	20.444	45.905	576.58	-0.051772	359.51	0.062026	28.963	0.034526	11.379	12.834	68.528	14.399	25.647	135.11	4.4924	15.438	0.0037353
-84.500	3.2816	0.73601	8.6554	9.7325	51.917	2778.2	0.00035995	1.0554	1.0709	6.0036	20.418	45.950	575.10	-0.051462	357.19	0.061835	29.553	0.033838	11.381	12.839	68.385	14.424	25.722	135.20	4.4647	15.480	0.0037480
-84.000	3.3531	0.75107	8.8184	9.9190	52.780	2774.6	0.00036042	1.0782	1.0941	6.1244	20.392	45.996	573.62	-0.051147	354.88	0.061645	30.151	0.033166	11.384	12.844	68.244	14.449	25.798	135.30	4.4373	15.521	0.0037608
-83.500	3.4258	0.76636	8.9832	10.108	53.650	2770.9	0.00036089	1.1010	1.1173	6.2450	20.367	46.042	572.14	-0.050829	352.60	0.061454	30.758	0.032512	11.386	12.849	68.102	14.474	25.875	135.39	4.4102	15.563	0.0037736
-83.000	3.4997	0.78189	9.1497	10.298	54.527	2767.3	0.00036137	1.1239	1.1405	6.3653	20.342	46.089	570.65	-0.050507	350.33	0.061263	31.375	0.031873	11.389	12.853	67.962	14.499	25.953	135.49	4.3833	15.605	0.0037865
-82.500	3.5747	0.79766	9.3181	10.491	55.411	2763.6	0.00036185	1.1467	1.1637	6.4854	20.316	46.137	569.16	-0.050181	348.07	0.061072	32.000	0.031250	11.391	12.858	67.822	14.524	26.031	135.58	4.3566	15.647	0.0037994
-82.000	3.6509	0.81367	9.4882	10.687	56.303	2759.9	0.00036233	1.1696	1.1869	6.6054	20.291	46.185	567.68	-0.049852	345.84	0.060882	32.635	0.030642	11.393	12.862	67.683	14.549	26.111	135.67	4.3302	15.689	0.0038124
-81.500	3.7284	0.82993	9.6601	10.884	57.201	2756.3	0.00036281	1.1925	1.2102	6.7251	20.267	46.234	566.19	-0.049518	343.62	0.060691	33.279	0.030049	11.395	12.866	67.545	14.575	26.191	135.77	4.3041	15.731	0.0038254
-81.000	3.8070	0.84643	9.8339	11.083	58.106	2752.6	0.00036330	1.2154	1.2335	6.8446	20.242	46.284	564.69	-0.049180	341.41	0.060500	33.933	0.029470	11.398	12.871	67.407	14.601	26.273	135.86	4.2782	15.774	0.0038385
-80.500	3.8868	0.86319	10.010	11.285	59.019	2748.9	0.00036378	1.2383	1.2569	6.9639	20.217	46.335	563.20	-0.048838	339.23	0.060310	34.596	0.028905	11.400	12.875	67.269	14.627	26.355	135.94	4.2525	15.816	0.0038517
-80.000	3.9679	0.88020	10.187	11.489	59.939	2745.2	0.00036427	1.2613	1.2802	7.0830	20.193	46.387	561.70	-0.048491	337.06	0.060119	35.270	0.028353	11.402	12.879	67.133	14.653	26.438	136.03	4.2271	15.859	0.0038649
-79.500	4.0503	0.89747	10.366	11.696	60.866	2741.5	0.00036477	1.2842	1.3036	7.2019	20.169	46.439	560.20	-0.048141	334.90	0.059929	35.952	0.027815	11.404	12.883	66.997	14.679	26.522	136.12	4.2019	15.902	0.0038782
-79.000	4.1338	0.91499	10.547	11.904	61.800	2737.8	0.00036526	1.3072	1.3270	7.3206	20.145	46.493	558.70	-0.047786	332.76	0.059739	36.645	0.027289	11.406	12.887	66.861	14.705	26.608	136.20	4.1769	15.945	0.0038915
-78.500	4.2187	0.93278	10.730	12.115	62.741	2734.0	0.00036576	1.3302	1.3505	7.4392	20.121	46.547	557.20	-0.047427	330.64	0.059548	37.348	0.026775	11.408	12.891	66.727	14.732	26.694	136.29	4.1522	15.988	0.0039049
-78.000	4.3048	0.95084	10.915	12.328	63.690	2730.3	0.00036626	1.3533	1.3740	7.5575	20.097	46.602	555.69	-0.047063	328.53	0.059358	38.061	0.026274	11.410	12.895	66.592	14.758	26.781	136.37	4.1277	16.031	0.0039184
-77.500	4.3923	0.96916	11.102	12.544	64.646	2726.6	0.00036676	1.3763	1.3975	7.6756	20.073	46.657	554.18	-0.046695	326.44	0.059168	38.784	0.025784	11.412	12.898	66.459	14.785	26.869	136.45	4.1034	16.075	0.0039319
-77.000	4.4810	0.98776	11.291	12.762	65.609	2722.8	0.00036727	1.3994	1.4210	7.7936	20.050	46.714	552.67	-0.046323	324.36	0.058978	39.517	0.025305	11.413	12.902	66.326	14.812	26.958	136.54	4.0793	16.118	0.0039455
-76.500	4.5443	undefined	11.417	12.909	66.253	40.000	0.025000	11.417	12.909	66.253	14.817	26.991	136.67	4.0553	16.159	0.0039576	40.000	0.025000	11.417	12.909	66.253	14.817	26.991	136.67	4.0553	16.159	0.0039576
-76.000	4.5582	undefined	11.424	12.921	66.290	40.000	0.025000	11.424	12.921	66.290	14.783	26.919	136.91	4.0315	16.195	0.0039668	40.000	0.025000	11.424	12.921	66.290	14.783	26.919	136.91	4.0315	16.195	0.0039668
-75.500	4.5721	undefined	11.432	12.933	66.328	40.000	0.025000	11.432	12.933	66.328	14.749	26.849	137.14	4.0079	16.231	0.0039760	40.000	0.025000	11.432	12.933	66.328	14.749	26.849	137.14	4.0079	16.231	0.0039760
-75.000	4.5859	undefined	11.439	12.944	66.365	40.000	0.025000	11.439	12.944	66.365	14.716	26.781	137.37	3.9846	16.267	0.0039853	40.000	0.025000	11.439	12.944	66.365	14.716	26.781	137.37	3.9846	16.267	0.0039853
-74.500	4.5998	undefined	11.447	12.956	66.402	40.000	0.025000	11.447	12.956	66.402	14.684	26.714	137.60	3.9616	16.303	0.0039945	40.000	0.025000	11.447	12.956	66.402	14.684	26.714	137.60	3.9616	16.303	0.0039945
-74.000	4.6136	undefined	11.454	12.968	66.439	40.000	0.025000	11.454	12.968	66.439	14.653	26.649	137.84	3.9389	16.339	0.0040037	40.000	0.025000	11.454	12.968	66.439	14.653	26.649	137.84	3.9389	16.339	0.0040037
-73.500	4.6275	undefined	11.461	12.980	66.475	40.000	0.025000	11.461	12.980	66.475	14.622	26.585	138.07	3.9165	16.375	0.0040129	40.000	0.025000	11.461	12.980	66.475	14.622	26.585	138.07	3.9165	16.375	0.0040129
-73.000	4.6413	undefined	11.469	12.992	66.512	40.000	0.025000	11.469	12.992	66.512	14.592	26.523	138.29	3.8943	16.411	0.0040221	40.000	0.025000	11.469	12.992	66.512	14.592	26.523	138.29	3.8943	16.411	0.0040221
-72.500	4.6551	undefined	11.476	13.004	66.548	40.000	0.025000	11.476	13.004	66.548	14.563	26.462	138.52	3.8724	16.447	0.0040313	40.000	0.025000	11.476	13.004	66.548	14.563	26.462	138.52	3.8724	16.447	0.0040313
-72.000	4.6689	undefined	11.483	13.016	66.585	40.000	0.025000	11.483	13.016	66.585	14.535	26.402	138.75	3.8507	16.483	0.0040405	40.000	0.025000	11.483	13.016	66.585	14.535	26.402	138.75	3.8507	16.483	0.0040405
-71.500	4.6827	undefined	11.490	13.027	66.621	40.000	0.025000	11.490	13.027	66.621	14.507	26.343	138.98	3.8293	16.519	0.0040497	40.000	0.025000	11.490	13.027	66.621	14.507	26.343	138.98	3.8293	16.519	0.0040497
-71.000	4.6965	undefined	11.498	13.039	66.656	40.000	0.025000	11.498	13.039	66.656	14.480	26.286	139.20	3.8081	16.554	0.0040589	40.000	0.025000	11.498	13.039	66.656	14.480	26.286	139.20	3.8081	16.554	0.0040589
-70.500	4.7103	undefined	11.505	13.051	66.692	40.000	0.025000	11.505	13.051	66.692	14.454	26.230	139.43	3.7872	16.590	0.0040681	40.000	0.025000	11.505	13.051	66.692	14.454	26.230	139.43	3.7872	16.590	0.0040681
-70.000	4.7241	undefined	11.512	13.063	66.728	40.000	0.025000	11.512	13.063	66.728	14.428	26.176	139.65	3.7665	16.626	0.0040773	40.000	0.025000	11.512	13.063	66.728	14.428	26.176	139.65	3.7665	16.626	0.0040773
-69.500	4.7378	undefined	11.519	13.074	66.763	40.000	0.025000	11.519	13.074	66.763	14.403	26.122	139.87	3.7461	16.662	0.0040865	40.000	0.025000	11.519	13.074	66.763	14.403	26.122	139.87	3.7461	16.662	0.0040865
-69.000	4.7516	undefined	11.526	13.086	66.798	40.000	0.025000	11.526	13.086	66.798	14.378	26.070	140.09	3.7259	16.698	0.0040957	40.000	0.025000	11.526	13.086	66.798	14.378	26.070	140.09	3.7259	16.698	0.0040957
-68.500	4.7653	undefined	11.534	13.098	66.834	40.000	0.025000	11.534	13.098	66.834	14.354	26.018	140.32	3.7059	16.734	0.0041049	40.000	0.025000	11.534	13.098	66.834	14.354	26.018	140.32	3.7059	16.734	0.0041049
-68.000	4.7790	undefined	11.541	13.109	66.869	40.000	0.025000	11.541	13.109	66.869	14.331	25.968	140.54	3.6861	16.770	0.0041140	40.000	0.025000	11.541	13.109	66.869	14.331	25.968	140.54	3.6861	16.770	0.0041140
-67.500	4.7928	undefined	11.548	13.121	66.903	40.000	0.025000	11.548	13.121	66.903	14.308	25.918	140.76	3.6665	16.806	0.0041232	40.000	0.025000	11.548	13.121	66.903	14.308	25.918	140.76	3.6665	16.806	0.0041232
-67.000	4.8065	undefined	11.555	13.133	66.938	40.000	0.025000	11.555	13.133	66.938	14.285	25.870	140.98	3.6472	16.842	0.0041324	40.000	0.025000	11.555	13.133	66.938	14.285	25.870	140.98	3.6472	16.842	0.0041324
-66.500	4.8202	undefined	11.562	13.144	66.973	40.000	0.025000	11.562	13.144	66.973	14.263	25.822	141.19	3.6280	16.878	0.0041416	40.000	0.025000	11.562	13.144	66.973	14.263	25.822	141.19	3.6280	16.878	0.0041416
-66.000	4.8339	undefined	11.569	13.156	67.007	40.000	0.025000	11.569	13.156	67.007	14.241	25.776	141.41	3.6091	16.914	0.0041507	40.000	0.025000	11.569	13.156	67.007	14.241	25.776	141.41	3.6091	16.914	0.0041507
-65.500	4.8476	undefined	11.576	13.168	67.042	40.000	0.025000	11.576	13.168	67.042	14.220	25.730	141.63	3.5903	16.950	0.0041599	40.000	0.025000	11.576	13.168	67.042	14.220	25.730	141.63	3.5903	16.950	0.0041599
-65.000	4.8612	undefined	11.584	13.179	67.076	40.000	0.025000	11.584	13.179	67.076	14.199	25.685	141.84	3.5718	16.986	0.0041691	40.000	0.025000	11.584	13.179	67.076	14.199	25.685	141.84	3.5718	16.986	0.0041691
-64.500	4.8749	undefined	11.591	13.191	67.110	40.000	0.025000	11.591	13.191	67.110	14.179	25.641	142.06	3.5535	17.022	0.0041782	40.000	0.025000	11.591	13.191	67.110	14.179	25.641	142.06	3.5535	17.022	0.0041782
-64.000	4.8886	undefined	11.598	13.202	67.144	40.000	0.025000	11.598	13.202	67.144	14.159	25.598	142.27	3.5353	17.058	0.0041874	40.000	0.025000	11.598	13.202	67.144	14.159	25.598	142.27	3.5353	17.058	0.0041874
-63.500	4.9022	undefined	11.605	13.214	67.177	40.000	0.025000	11.605	13.214	67.177	14.140	25.556	142.49	3.5173	17.094	0.0041965	40.000	0.025000	11.605	13.214	67.177	14.140	25.556	142.49	3.5173	17.094	0.0041965
-63.000	4.9159	undefined	11.612	13.225	67.211	40.000	0.025000	11.612	13.225	67.211	14.121	25.514	142.70	3.4995	17.130	0.0042057	40.000	0.025000	11.612	13.225	67.211	14.121	25.514	142.70	3.4995	17.130	0.0042057
-62.500	4.9295	undefined	11.619	13.237	67.245	40.000	0.025000	11.619	13.237	67.245	14.102	25.473	142.92	3.4819	17.166	0.0042148	40.000	0.025000	11.619	13.237	67.245	14.102	25.473	142.92	3.4819	17.166	0.0042148
-62.000	4.9431	undefined	11.626	13.248	67.278	40.000	0.025000	11.626	13.248	67.278	14.084	25.433	143.13	3.4645	17.202	0.0042240	40.000	0.025000	11.626	13.248	67.278	14.084	25.433	143.13	3.4645	17.202	0.0042240
-61.500	4.9568	undefined	11.633	13.260	67.311	40.000	0.025000	11.633	13.260	67.311	14.066	25.394	143.34	3.4472	17.238	0.0042331	40.000	0.025000	11.633	13.260	67.311	14.066	25.394	143.34	3.4472	17.238	0.0042331
-61.000	4.9704	undefined	11.640	13.272	67.345	40.000	0.025000	11.640	13.272	67.345	14.048	25.355	143.55	3.4301	17.274	0.0042422	40.000	0.025000	11.640	13.272	67.345	14.048	25.355	143.55	3.4301	17.274	0.0042422
-60.500	4.9840	undefined	11.647	13.283	67.378	40.000	0.025000	11.647	13.283	67.378	14.031	25.317	143.76	3.4132	17.310	0.0042514	40.000	0.025000	11.647	13.283	67.378	14.031	25.317	143.76	3.4132	17.310	0.0042514
-60.000	4.9976	undefined	11.654	13.294	67.411	40.000	0.025000	11.654	13.294	67.411	14.014	25.279	143.97	3.3964	17.346	0.0042605	40.000	0.025000	11.654	13.294	67.411	14.014	25.279	143.97	3.3964	17.346	0.0042605
-59.500	5.0112	undefined	11.661	13.306	67.443	40.000	0.025000	11.661	13.306	67.443	13.997	25.242	144.18	3.3798	17.382	0.0042696	40.000	0.025000	11.661	13.306	67.443	13.997	25.242	144.18	3.3798	17.382	0.0042696
-59.000	5.0248	undefined	11.668	13.317	67.476	40.000	0.025000	11.668	13.317	67.476	13.981	25.206	144.39	3.3634	17.419	0.0042788	40.000	0.025000	11.668	13.317	67.476	13.981	25.206	144.39	3.3634	17.419	0.0042788
-58.500	5.0384	undefined	11.675	13.329	67.509	40.000	0.025000	11.675	13.329	67.509	13.965	25.170	144.60	3.3471	17.455	0.0042879	40.000	0.025000	11.675	13.329	67.509	13.965	25.170	144.60	3.3471	17.455	0.0042879
-58.000	5.0520	undefined	11.682	13.340	67.541	40.000	0.025000	11.682	13.340	67.541	13.949	25.135	144.80	3.3310	17.491	0.0042970	40.000	0.025000	11.682	13.340	67.541	13.949	25.135	144.80	3.3310	17.491	0.0042970
-57.500	5.0655	undefined	11.689	13.352	67.573	40.000	0.025000	11.689	13.352	67.573	13.934	25.101	145.01	3.3150	17.527	0.0043061	40.000	0.025000	11.689	13.352	67.573	13.934	25.101	145.01	3.3150	17.527	0.0043061
-57.000	5.0791	undefined	11.696	13.363	67.606	40.000	0.025000	11.696	13.363	67.606	13.919	25.067	145.22	3.2991	17.563	0.0043152	40.000	0.025000	11.696	13.363	67.606	13.919	25.067	145.22	3.2991	17.563	0.0043152
-56.500	5.0927	undefined	11.703	13.375	67.638	40.000	0.025000	11.703	13.375	67.638	13.904	25.034	145.42	3.2835	17.599	0.0043243	40.000	0.025000	11.703	13.375	67.638	13.904	25.034	145.42	3.2835	17.599	0.0043243
-56.000	5.1062	undefined	11.710	13.386	67.670	40.000	0.025000	11.710	13.386	67.670	13.889	25.001	145.63	3.2679	17.635	0.0043335	40.000	0.025000	11.710	13.386	67.670	13.889	25.001	145.63	3.2679	17.635	0.0043335
-55.500	5.1198	undefined	11.717	13.397	67.702	40.000	0.025000	11.717	13.397	67.702	13.875	24.968	145.83	3.2525	17.671	0.0043426	40.000	0.025000	11.717	13.397	67.702	13.875	24.968	145.83	3.2525	17.671	0.0043426
-55.000	5.1333	undefined	11.724	13.409	67.734	40.000	0.025000	11.724	13.409	67.734	13.861	24.936	146.04	3.2373	17.707	0.0043517	40.000	0.025000	11.724	13.409	67.734	13.861	24.936	146.04	3.2373	17.707	0.0043517
